2θ 	Intensity,cps	2θ Intensity,cps
20	1100.663	20	1077.893
20.01	1024.61	20.01	846.5528
20.02	1072.636	20.02	1116.026
20.03	1078.797	20.03	1212.63
20.04	1163.757	20.04	757.5757
20.05	1060.193	20.05	976.205
20.06	1002.991	20.06	1212.63
20.07	1099.552	20.07	1080.435
20.08	1044.456	20.08	772.829
20.09	1044.508	20.09	892.3124
20.1	1158.69	20.1	986.3738
20.11	1005.613	20.11	1103.315
20.12	1085.643	20.12	1118.568
20.13	1125.64	20.13	1154.159
20.14	1145.394	20.14	1177.039
20.15	1178.982	20.15	1179.581
20.16	981.8698	20.16	1410.921
20.17	1106.382	20.17	1266.016
20.18	1079.494	20.18	1222.798
20.19	1103.374	20.19	1309.233
20.2	1092.131	20.2	1197.376
20.21	1171.98	20.21	1179.581
20.22	1103.414	20.22	1232.967
20.23	523.9253	20.23	1258.389
20.24	590.4954	20.24	1100.773
20.25	796.0454	20.25	1327.029
20.26	1059.683	20.26	1504.983
20.27	1173.32	20.27	1205.003
20.28	1056.924	20.28	1248.22
20.29	1190.777	20.29	887.228
20.3	1088.774	20.3	905.0234
20.31	1086.593	20.31	1182.123
20.32	1165.017	20.32	1006.711
20.33	1289.916	20.33	922.8188
20.34	1240.837	20.34	1342.282
20.35	977.5496	20.35	1278.727
20.36	1060.403	20.36	1332.113
20.37	1172.879	20.37	1057.555
20.38	1095.847	20.38	1034.676
20.39	1156.647	20.39	1268.558
20.4	1211.563	20.4	1070.266
20.41	1209.2	20.41	1410.921
20.42	1066.949	20.42	1037.218
20.43	1134.838	20.43	1065.182
20.44	1357.838	20.44	1309.233
20.45	1165.044	20.45	1253.305
20.46	1200.249	20.46	1151.617
20.47	1156.656	20.47	1370.246
20.48	1248.023	20.48	976.205
20.49	1234.968	20.49	1306.691
20.5	1234.551	20.5	1042.302
20.51	1218.293	20.51	1085.52
20.52	1358.944	20.52	1151.617
20.53	1280.292	20.53	1426.174
20.54	1297.835	20.54	1375.331
20.55	1182.828	20.55	1718.527
20.56	1195.571	20.56	1075.351
20.57	1043.367	20.57	1136.364
20.58	1147.378	20.58	1159.244
20.59	1251.009	20.59	1088.062
20.6	1181.309	20.6	1131.279
20.61	1275.298	20.61	1281.269
20.62	1232.7	20.62	1088.062
20.63	1092.368	20.63	1021.965
20.64	1186.593	20.64	1301.607
20.65	1175.001	20.65	1021.965
20.66	1285.857	20.66	1278.727
20.67	1422.29	20.67	1072.809
20.68	1174.736	20.68	966.0362
20.69	1195.479	20.69	1169.412
20.7	1212.712	20.7	1164.328
20.71	1250.681	20.71	1034.676
20.72	1018.233	20.72	1177.039
20.73	1202.844	20.73	1235.51
20.74	1139.565	20.74	1187.208
20.75	1136.078	20.75	983.8316
20.76	1154.477	20.76	1205.003
20.77	1138.887	20.77	1116.026
20.78	1097.362	20.78	973.6628
20.79	1182.088	20.79	1062.64
20.8	1103.821	20.8	1166.87
20.81	1168.683	20.81	1393.126
20.82	1273.412	20.82	1423.632
20.83	1301.513	20.83	1103.315
20.84	1163.186	20.84	1004.169
20.85	1209.059	20.85	1245.678
20.86	1277.489	20.86	1156.701
20.87	1184.06	20.87	925.361
20.88	1259.602	20.88	1232.967
20.89	1268.976	20.89	1441.428
20.9	1097.94	20.9	1232.967
20.91	1223.029	20.91	1288.896
20.92	1155.784	20.92	1194.834
20.93	1103.606	20.93	1304.149
20.94	1265.422	20.94	1499.898
20.95	1143.762	20.95	1151.617
20.96	1338.704	20.96	1276.185
20.97	1278.418	20.97	1070.266
20.98	1262.676	20.98	1339.74
20.99	1366.259	20.99	902.4811
21	1159.971	21	1474.476
21.01	1211.493	21.01	1281.269
21.02	1199.038	21.02	1187.208
21.03	1202.986	21.03	1197.376
21.04	1227.996	21.04	1235.51
21.05	1274.741	21.05	1169.412
21.06	1260.158	21.06	1052.471
21.07	1386.272	21.07	1019.422
21.08	1297.286	21.08	1266.016
21.09	1128.712	21.09	1123.653
21.1	1206.251	21.1	973.6628
21.11	1183.939	21.11	1205.003
21.12	1121.552	21.12	1258.389
21.13	1300.083	21.13	1314.318
21.14	1211.065	21.14	1055.013
21.15	1153.278	21.15	1390.584
21.16	1206.075	21.16	1372.788
21.17	1346.18	21.17	1220.256
21.18	1321.874	21.18	1253.305
21.19	1293.954	21.19	1100.773
21.2	1308.108	21.2	1095.688
21.21	1104.059	21.21	1454.139
21.22	1104.722	21.22	1558.369
21.23	1127.282	21.23	1281.269
21.24	1102.329	21.24	938.072
21.25	1204.898	21.25	1161.786
21.26	1201.785	21.26	1271.1
21.27	1309.995	21.27	1192.292
21.28	1292.45	21.28	1126.195
21.29	1180.023	21.29	1118.568
21.3	1285.66	21.3	1189.75
21.31	1327.209	21.31	1271.1
21.32	1247.416	21.32	1281.269
21.33	1456.803	21.33	1299.064
21.34	1267.683	21.34	1515.151
21.35	1327.714	21.35	1438.885
21.36	1215.506	21.36	996.5426
21.37	1198.092	21.37	1291.438
21.38	1222.336	21.38	968.5784
21.39	1211.449	21.39	1199.919
21.4	1347.399	21.4	1329.571
21.41	1274.429	21.41	1502.44
21.42	1148.204	21.42	1347.366
21.43	1229.532	21.43	1161.786
21.44	1222.451	21.44	1388.042
21.45	1349.594	21.45	1281.269
21.46	1229.581	21.46	1225.341
21.47	1349.277	21.47	1131.279
21.48	1322.75	21.48	1189.75
21.49	1246.353	21.49	1466.85
21.5	1275.07	21.5	1309.233
21.51	1277.962	21.51	1138.906
21.52	1237.707	21.52	1474.476
21.53	1434.227	21.53	1471.934
21.54	1381.107	21.54	1446.512
21.55	1225.448	21.55	1248.22
21.56	1223.877	21.56	1166.87
21.57	1185.661	21.57	1408.379
21.58	1221.47	21.58	945.6986
21.59	1163.532	21.59	1266.016
21.6	1276.629	21.6	1446.512
21.61	1294.635	21.61	1304.149
21.62	1266.31	21.62	1388.042
21.63	1442.604	21.63	1136.364
21.64	1408.67	21.64	1418.548
21.65	1362.269	21.65	1321.944
21.66	1234.979	21.66	1354.993
21.67	1124.42	21.67	1273.642
21.68	1374.479	21.68	1367.704
21.69	1369.011	21.69	1293.98
21.7	1245.653	21.7	1548.2
21.71	1266.527	21.71	1230.425
21.72	1475.95	21.72	1357.535
21.73	1299.944	21.73	1098.231
21.74	1389.762	21.74	1431.259
21.75	1309.982	21.75	1128.737
21.76	1210.942	21.76	1166.87
21.77	1350.268	21.77	1357.535
21.78	1338.736	21.78	1009.254
21.79	1251.2	21.79	1382.957
21.8	1320.076	21.8	1248.22
21.81	1231.384	21.81	1149.075
21.82	1478.613	21.82	1299.064
21.83	1202.351	21.83	1179.581
21.84	1372.715	21.84	1088.062
21.85	1289.058	21.85	1238.052
21.86	1123.912	21.86	1349.908
21.87	1295.456	21.87	1220.256
21.88	1419.42	21.88	1342.282
21.89	1284.83	21.89	1451.597
21.9	1394.949	21.9	1197.376
21.91	1184.144	21.91	1443.97
21.92	1262.454	21.92	1217.714
21.93	1276.988	21.93	1250.763
21.94	1395.012	21.94	1243.136
21.95	1410.115	21.95	1116.026
21.96	1386.889	21.96	1222.798
21.97	1374.866	21.97	1205.003
21.98	1285.13	21.98	1128.737
21.99	1186.945	21.99	1421.09
22	1277.989	22	1304.149
22.01	1187.857	22.01	1174.497
22.02	1334.19	22.02	1372.788
22.03	1447.955	22.03	1616.84
22.04	1342.335	22.04	1487.187
22.05	1290.313	22.05	1464.308
22.06	1377.365	22.06	1375.331
22.07	1301.063	22.07	1220.256
22.08	1295.02	22.08	1182.123
22.09	1197.542	22.09	1161.786
22.1	1365.456	22.1	1354.993
22.11	1367.622	22.11	1311.776
22.12	1328.476	22.12	1443.97
22.13	1300.682	22.13	1143.99
22.14	1299.415	22.14	1151.617
22.15	1255.556	22.15	1212.63
22.16	1256.185	22.16	1433.801
22.17	1533.535	22.17	1571.08
22.18	1463.238	22.18	1426.174
22.19	1279.835	22.19	1171.954
22.2	1313.318	22.2	1388.042
22.21	1184.793	22.21	1370.246
22.22	1347.071	22.22	1309.233
22.23	1230.589	22.23	1835.469
22.24	1280.559	22.24	1591.417
22.25	1245.057	22.25	1278.727
22.26	1185.56	22.26	1382.957
22.27	1122.021	22.27	1260.932
22.28	1353.609	22.28	1471.934
22.29	1313.692	22.29	1558.369
22.3	1245.065	22.3	1316.86
22.31	1377.404	22.31	1121.11
22.32	1327.804	22.32	1276.185
22.33	1250.037	22.33	1052.471
22.34	1427.572	22.34	1301.607
22.35	1394.465	22.35	1128.737
22.36	1389.81	22.36	1062.64
22.37	1240.457	22.37	1342.282
22.38	1289.516	22.38	1187.208
22.39	1361.95	22.39	1194.834
22.4	1547.495	22.4	1271.1
22.41	1438.377	22.41	1370.246
22.42	1420.32	22.42	1525.32
22.43	1293.219	22.43	1207.545
22.44	1290.99	22.44	1426.174
22.45	1432.064	22.45	1553.284
22.46	1541.264	22.46	1192.292
22.47	1432.416	22.47	1423.632
22.48	1419.935	22.48	1179.581
22.49	1271.87	22.49	1192.292
22.5	1306.507	22.5	1538.031
22.51	1389.55	22.51	1443.97
22.52	1271.891	22.52	1405.837
22.53	1356.862	22.53	1065.182
22.54	1371.478	22.54	1337.197
22.55	1345.812	22.55	1329.571
22.56	1359.515	22.56	1250.763
22.57	1309.358	22.57	1365.162
22.58	1371.063	22.58	1293.98
22.59	1271.734	22.59	1583.791
22.6	1244.822	22.6	1377.873
22.61	1141.525	22.61	1449.054
22.62	1301.608	22.62	1677.852
22.63	1375.198	22.63	1352.451
22.64	1506.064	22.64	1337.197
22.65	1499.221	22.65	1484.645
22.66	1338.514	22.66	1593.96
22.67	1332.635	22.67	1428.717
22.68	1325.909	22.68	1545.658
22.69	1375.64	22.69	1138.906
22.7	1433.751	22.7	1238.052
22.71	1285.854	22.71	1599.044
22.72	1344.016	22.72	1362.62
22.73	1287.915	22.73	1232.967
22.74	1298.944	22.74	1380.415
22.75	1408.499	22.75	1260.932
22.76	1366.936	22.76	1382.957
22.77	1328.219	22.77	1314.318
22.78	1438.354	22.78	1359.442
22.79	1390.173	22.79	1327.664
22.8	1443.499	22.8	1161.786
22.81	1543.829	22.81	1281.269
22.82	1614.074	22.82	1497.356
22.83	1412.217	22.83	1240.594
22.84	1444.377	22.84	1360.077
22.85	1386.222	22.85	1276.185
22.86	1344.801	22.86	1332.113
22.87	1347.782	22.87	1288.896
22.88	1257.512	22.88	1316.86
22.89	1376.924	22.89	1393.126
22.9	1334.029	22.9	1403.295
22.91	1481.078	22.91	1456.681
22.92	1298.383	22.92	1464.308
22.93	1348.997	22.93	1482.103
22.94	1322.128	22.94	1431.259
22.95	1369.67	22.95	1245.678
22.96	1418.938	22.96	1255.847
22.97	1325.815	22.97	1367.704
22.98	1300.51	22.98	1560.911
22.99	1355.227	22.99	1497.356
23	1393.587	23	1199.919
23.01	1427.665	23.01	1301.607
23.02	1338.073	23.02	1286.354
23.03	1451.268	23.03	1494.814
23.04	1434.867	23.04	1454.139
23.05	1297.255	23.05	1515.151
23.06	1404.133	23.06	1276.185
23.07	1272.097	23.07	1187.208
23.08	1519.699	23.08	1606.671
23.09	1370.483	23.09	1525.32
23.1	1429.562	23.1	1451.597
23.11	1454.914	23.11	1372.788
23.12	1425.643	23.12	1540.574
23.13	1442.163	23.13	1530.405
23.14	1394.95	23.14	1400.753
23.15	1384.459	23.15	1293.98
23.16	1380.657	23.16	1530.405
23.17	1513.047	23.17	1281.269
23.18	1477.797	23.18	1240.594
23.19	1363.334	23.19	1187.208
23.2	1413.722	23.2	1428.717
23.21	1396.696	23.21	1250.763
23.22	1305.407	23.22	1433.801
23.23	1533.089	23.23	1588.875
23.24	1478.723	23.24	1250.763
23.25	1425.42	23.25	1413.463
23.26	1366.115	23.26	1230.425
23.27	1458.123	23.27	1395.668
23.28	1416.361	23.28	1334.655
23.29	1402.27	23.29	1517.694
23.3	1296.722	23.3	1225.341
23.31	1622.002	23.31	1357.535
23.32	1411.154	23.32	1471.934
23.33	1466.807	23.33	1360.077
23.34	1451.278	23.34	1271.1
23.35	1407.024	23.35	1385.499
23.36	1415.317	23.36	1225.341
23.37	1422.588	23.37	1395.668
23.38	1337.423	23.38	1263.474
23.39	1333.46	23.39	1258.389
23.4	1437.22	23.4	1403.295
23.41	1416.125	23.41	1565.995
23.42	1390.715	23.42	1532.947
23.43	1436.521	23.43	1418.548
23.44	1457.411	23.44	1225.341
23.45	1501.65	23.45	1342.282
23.46	1456.49	23.46	1433.801
23.47	1404.758	23.47	1319.402
23.48	1328.163	23.48	1354.993
23.49	1352.617	23.49	1469.392
23.5	1317.55	23.5	1182.123
23.51	1445.34	23.51	1370.246
23.52	1451.945	23.52	1474.476
23.53	1297.527	23.53	1377.873
23.54	1358.609	23.54	1309.233
23.55	1492.261	23.55	1461.765
23.56	1419.737	23.56	1377.873
23.57	1381.119	23.57	1291.438
23.58	1517.11	23.58	1370.246
23.59	1547.413	23.59	1347.366
23.6	1301.644	23.6	1466.85
23.61	1453.713	23.61	1324.487
23.62	1350.494	23.62	1443.97
23.63	1280.271	23.63	1571.08
23.64	1352.995	23.64	1426.174
23.65	1406.946	23.65	1474.476
23.66	1359.726	23.66	1609.213
23.67	1306.44	23.67	1271.1
23.68	1332.377	23.68	1220.256
23.69	1372.528	23.69	1504.983
23.7	1466.88	23.7	1474.476
23.71	1429.885	23.71	1446.512
23.72	1278.815	23.72	1319.402
23.73	1415.987	23.73	1443.97
23.74	1435.67	23.74	1090.604
23.75	1320.595	23.75	1464.308
23.76	1465.159	23.76	1454.139
23.77	1329.965	23.77	1248.22
23.78	1254.91	23.78	1558.369
23.79	1335.126	23.79	1499.898
23.8	1365.595	23.8	1235.51
23.81	1546.136	23.81	1431.259
23.82	1565.161	23.82	1410.921
23.83	1342.798	23.83	1456.681
23.84	1483.599	23.84	1410.921
23.85	1365.185	23.85	1332.113
23.86	1182.619	23.86	1464.308
23.87	1223.043	23.87	1271.1
23.88	1450.959	23.88	1418.548
23.89	1384.381	23.89	1390.584
23.9	1535.576	23.9	1400.753
23.91	1247.791	23.91	1367.704
23.92	1373.993	23.92	1469.392
23.93	1354.683	23.93	1555.827
23.94	1336.063	23.94	1263.474
23.95	1392.934	23.95	1433.801
23.96	1366.688	23.96	1464.308
23.97	1214.005	23.97	1428.717
23.98	1378.516	23.98	1441.428
23.99	1433.086	23.99	1532.947
24	1488.143	24	1260.932
24.01	1488.432	24.01	1754.118
24.02	1448.497	24.02	1243.136
24.03	1333.59	24.03	1194.834
24.04	1296.879	24.04	1271.1
24.05	1352.867	24.05	1548.2
24.06	1269.407	24.06	1461.765
24.07	1223.662	24.07	1515.151
24.08	1374.716	24.08	1276.185
24.09	1267.496	24.09	1347.366
24.1	1368.492	24.1	1398.21
24.11	1404.439	24.11	1296.522
24.12	1307.037	24.12	1441.428
24.13	1221.29	24.13	1268.558
24.14	1419.355	24.14	1293.98
24.15	1401.563	24.15	1390.584
24.16	1289.707	24.16	1278.727
24.17	1453.459	24.17	1082.977
24.18	1456.743	24.18	1217.714
24.19	1373.427	24.19	1543.116
24.2	1381.075	24.2	1319.402
24.21	1385.446	24.21	1388.042
24.22	1438.816	24.22	1403.295
24.23	1368.674	24.23	1421.09
24.24	1556.34	24.24	1565.995
24.25	1559.066	24.25	1621.924
24.26	1395.92	24.26	1449.054
24.27	1248.747	24.27	1548.2
24.28	1356.109	24.28	1423.632
24.29	1418.357	24.29	1171.954
24.3	1383.825	24.3	1565.995
24.31	1324.942	24.31	1715.985
24.32	1318.347	24.32	1390.584
24.33	1390.363	24.33	1324.487
24.34	1403.895	24.34	1393.126
24.35	1320.898	24.35	1171.954
24.36	1268.242	24.36	1370.246
24.37	1413.053	24.37	1207.545
24.38	1253.605	24.38	1695.648
24.39	1206.467	24.39	1484.645
24.4	1355.796	24.4	1532.947
24.41	1422.685	24.41	1456.681
24.42	1483.695	24.42	1461.765
24.43	1448.511	24.43	1321.944
24.44	1281.738	24.44	1586.333
24.45	1329.571	24.45	1769.372
24.46	1466.328	24.46	1576.164
24.47	1270.017	24.47	1634.635
24.48	1420.046	24.48	1416.006
24.49	1442.278	24.49	1240.594
24.5	1410.646	24.5	1451.597
24.51	1408.283	24.51	1253.305
24.52	1337.098	24.52	1558.369
24.53	1420.552	24.53	1339.74
24.54	1456.688	24.54	1337.197
24.55	1317.892	24.55	1360.077
24.56	1337.39	24.56	1629.55
24.57	1349.173	24.57	1347.366
24.58	1376.818	24.58	1479.561
24.59	1340.731	24.59	1309.233
24.6	1455.702	24.6	1441.428
24.61	1600.008	24.61	1339.74
24.62	1446.622	24.62	1286.354
24.63	1338.677	24.63	1619.382
24.64	1289.909	24.64	1400.753
24.65	1465.036	24.65	1736.323
24.66	1481.52	24.66	1629.55
24.67	1367.23	24.67	1499.898
24.68	1423.12	24.68	1538.031
24.69	1417.541	24.69	1438.885
24.7	1391.254	24.7	1548.2
24.71	1347.953	24.71	1477.018
24.72	1366.97	24.72	1784.625
24.73	1467.208	24.73	1759.203
24.74	1323.046	24.74	1517.694
24.75	1405.967	24.75	1377.873
24.76	1278.668	24.76	1416.006
24.77	1188.578	24.77	1423.632
24.78	1305.288	24.78	1548.2
24.79	1396.278	24.79	1174.497
24.8	1362.057	24.8	1296.522
24.81	1468.239	24.81	1393.126
24.82	1323.771	24.82	1243.136
24.83	1425.257	24.83	1433.801
24.84	1444.671	24.84	1250.763
24.85	1475.835	24.85	1398.21
24.86	1364.208	24.86	1352.451
24.87	1436.718	24.87	1217.714
24.88	1344.324	24.88	1698.19
24.89	1481.857	24.89	1288.896
24.9	1287.828	24.9	1166.87
24.91	1440.72	24.91	1248.22
24.92	1468.195	24.92	1136.364
24.93	1511.058	24.93	1349.908
24.94	1474.729	24.94	1614.297
24.95	1367.752	24.95	1273.642
24.96	1287.646	24.96	1558.369
24.97	1418.008	24.97	1410.921
24.98	1447.529	24.98	1382.957
24.99	1394.868	24.99	1436.343
25	1430.216	25	1586.333
25.01	1437.87	25.01	1482.103
25.02	1359.296	25.02	1588.875
25.03	1325.487	25.03	1464.308
25.04	1464.858	25.04	1337.197
25.05	1521.842	25.05	1393.126
25.06	1277.038	25.06	1581.249
25.07	1308.33	25.07	1179.581
25.08	1242.168	25.08	1189.75
25.09	1391.718	25.09	1039.76
25.1	1255.181	25.1	1248.22
25.11	1242.813	25.11	1477.018
25.12	1276.108	25.12	1487.187
25.13	1405.152	25.13	1413.463
25.14	1378.247	25.14	1403.295
25.15	1196.313	25.15	1492.272
25.16	1465.922	25.16	1647.346
25.17	1415.8	25.17	1632.093
25.18	1373.06	25.18	1431.259
25.19	1330.319	25.19	1474.476
25.2	1354.195	25.2	1520.236
25.21	1372.294	25.21	1507.525
25.22	1451.256	25.22	1309.233
25.23	1278.617	25.23	1405.837
25.24	1355.402	25.24	1316.86
25.25	1281.65	25.25	1497.356
25.26	1318.371	25.26	1454.139
25.27	1440.254	25.27	1639.719
25.28	1346.01	25.28	1649.888
25.29	1342.233	25.29	1611.755
25.3	1451.03	25.3	1375.331
25.31	1515.993	25.31	1217.714
25.32	1317.194	25.32	1253.305
25.33	1248.951	25.33	1403.295
25.34	1449.382	25.34	1477.018
25.35	1480.974	25.35	1520.236
25.36	1330.06	25.36	1418.548
25.37	1452.969	25.37	1403.295
25.38	1401.858	25.38	1492.272
25.39	1480.209	25.39	1327.029
25.4	1450.923	25.4	1301.607
25.41	1380.349	25.41	1337.197
25.42	1361.017	25.42	1520.236
25.43	1276.194	25.43	1492.272
25.44	1427.86	25.44	1555.827
25.45	1432.515	25.45	1263.474
25.46	1317.713	25.46	1416.006
25.47	1357.765	25.47	1230.425
25.48	1397.561	25.48	1324.487
25.49	1432.819	25.49	1520.236
25.5	1346.932	25.5	1278.727
25.51	1467.771	25.51	1436.343
25.52	1334.175	25.52	1499.898
25.53	1358.252	25.53	1309.233
25.54	1376.187	25.54	1565.995
25.55	1411.385	25.55	1339.74
25.56	1313.32	25.56	1515.151
25.57	1268.365	25.57	1385.499
25.58	1422.156	25.58	1416.006
25.59	1395.121	25.59	1494.814
25.6	1472.042	25.6	1362.62
25.61	1320.583	25.61	1609.213
25.62	1393.397	25.62	1398.21
25.63	1571.323	25.63	1238.052
25.64	1323.577	25.64	1540.574
25.65	1249.006	25.65	1621.924
25.66	1218.567	25.66	1538.031
25.67	1505.369	25.67	1614.297
25.68	1535.749	25.68	1555.827
25.69	1373.252	25.69	1349.908
25.7	1331.203	25.7	1250.763
25.71	1260.944	25.71	1293.98
25.72	1404.834	25.72	1354.993
25.73	1163.796	25.73	1416.006
25.74	1243.534	25.74	1530.405
25.75	1361.334	25.75	1225.341
25.76	1380.578	25.76	1321.944
25.77	1324.109	25.77	1360.077
25.78	1468.716	25.78	1451.597
25.79	1365.096	25.79	1215.172
25.8	1250.971	25.8	1535.489
25.81	1228.434	25.81	1301.607
25.82	1343.143	25.82	1581.249
25.83	1215.867	25.83	1520.236
25.84	1269.117	25.84	1309.233
25.85	1325.561	25.85	1210.087
25.86	1326.034	25.86	1538.031
25.87	1333.848	25.87	1337.197
25.88	1408.635	25.88	1443.97
25.89	1546.986	25.89	1482.103
25.9	1455.369	25.9	1520.236
25.91	1450.405	25.91	1436.343
25.92	1324.846	25.92	1370.246
25.93	1411.766	25.93	1416.006
25.94	1185.183	25.94	1334.655
25.95	1220.67	25.95	1321.944
25.96	1310.785	25.96	1624.466
25.97	1375.48	25.97	1525.32
25.98	1306.852	25.98	1309.233
25.99	1232.557	25.99	1370.246
26	1303.333	26	1560.911
26.01	1270.571	26.01	1283.811
26.02	1164.43	26.02	1454.139
26.03	1331.513	26.03	1360.077
26.04	1401.792	26.04	1324.487
26.05	1420.654	26.05	1215.172
26.06	1204.73	26.06	1449.054
26.07	1274.42	26.07	1769.372
26.08	1293.717	26.08	1578.707
26.09	1288.463	26.09	1456.681
26.1	1358.747	26.1	1604.129
26.11	1301.364	26.11	1698.19
26.12	1205.363	26.12	1352.451
26.13	1291.381	26.13	1497.356
26.14	1452.853	26.14	1436.343
26.15	1309.343	26.15	1299.064
26.16	1107.526	26.16	1530.405
26.17	1205.275	26.17	1601.586
26.18	1314.195	26.18	1606.671
26.19	1647.906	26.19	1215.172
26.2	1276.943	26.2	1301.607
26.21	1340.224	26.21	1517.694
26.22	1405.659	26.22	1599.044
26.23	1357.009	26.23	1232.967
26.24	1493.846	26.24	1482.103
26.25	1411.026	26.25	1632.093
26.26	1201.771	26.26	1522.778
26.27	1255.173	26.27	1416.006
26.28	1388.321	26.28	1332.113
26.29	1505.798	26.29	1339.74
26.3	1373.349	26.3	1591.417
26.31	1268.824	26.31	1377.873
26.32	1275.516	26.32	1466.85
26.33	1408.62	26.33	1306.691
26.34	1469.602	26.34	1726.154
26.35	1378.7	26.35	1362.62
26.36	1304.96	26.36	1372.788
26.37	1326.705	26.37	1614.297
26.38	1298.339	26.38	1487.187
26.39	1418.497	26.39	1446.512
26.4	1470.935	26.4	1301.607
26.41	1163.595	26.41	1299.064
26.42	1131.127	26.42	1408.379
26.43	1316.866	26.43	1601.586
26.44	1249.003	26.44	1609.213
26.45	1242.166	26.45	1215.172
26.46	1283.162	26.46	1443.97
26.47	1411.298	26.47	1377.873
26.48	1298.239	26.48	1433.801
26.49	1263.924	26.49	1283.811
26.5	1257.828	26.5	1438.885
26.51	1351.991	26.51	1321.944
26.52	1278.97	26.52	1426.174
26.53	1218.476	26.53	1568.538
26.54	1384.727	26.54	1550.742
