TITLE,
DATA TYPE,ULTRAVIOLET SPECTRUM
ORIGIN,JASCO
OWNER,
DATE,22/10/18
TIME,18:47:16
SPECTROMETER/DATA SYSTEM,
LOCALE,16393
RESOLUTION,
DELTAX,-0.2
XUNITS,NANOMETERS
YUNITS,ABSORBANCE
FIRSTX,  900.0000
LASTX,  200.0000
NPOINTS,    3501
FIRSTY,     0.41798
MAXY,     0.75010
MINY,     0.41378
XYDATA
900.0000,0.417979
899.8000,0.415316
899.6000,0.413776
899.4000,0.416478
899.2000,0.416764
899.0000,0.416921
898.8000,0.416654
898.6000,0.41562
898.4000,0.420103
898.2000,0.422251
898.0000,0.421565
897.8000,0.416731
897.6000,0.415426
897.4000,0.420968
897.2000,0.419595
897.0000,0.418017
896.8000,0.4209
896.6000,0.421371
896.4000,0.418543
896.2000,0.416328
896.0000,0.41604
895.8000,0.415557
895.6000,0.416746
895.4000,0.416171
895.2000,0.415167
895.0000,0.41838
894.8000,0.41684
894.6000,0.416658
894.4000,0.419482
894.2000,0.421394
894.0000,0.421133
893.8000,0.421189
893.6000,0.420457
893.4000,0.419922
893.2000,0.422418
893.0000,0.422542
892.8000,0.421615
892.6000,0.419916
892.4000,0.419906
892.2000,0.421751
892.0000,0.424744
891.8000,0.422198
891.6000,0.420164
891.4000,0.422198
891.2000,0.420803
891.0000,0.421036
890.8000,0.423164
890.6000,0.425029
890.4000,0.423729
890.2000,0.421315
890.0000,0.422391
889.8000,0.423839
889.6000,0.427581
889.4000,0.428819
889.2000,0.424259
889.0000,0.425258
888.8000,0.426352
888.6000,0.423475
888.4000,0.421819
888.2000,0.421308
888.0000,0.423595
887.8000,0.422521
887.6000,0.422077
887.4000,0.426145
887.2000,0.4265
887.0000,0.424973
886.8000,0.427347
886.6000,0.427866
886.4000,0.42273
886.2000,0.422042
886.0000,0.425123
885.8000,0.425817
885.6000,0.427645
885.4000,0.427344
885.2000,0.425234
885.0000,0.426041
884.8000,0.4264
884.6000,0.427764
884.4000,0.426356
884.2000,0.425486
884.0000,0.427383
883.8000,0.428504
883.6000,0.42932
883.4000,0.429209
883.2000,0.428559
883.0000,0.427982
882.8000,0.428139
882.6000,0.427265
882.4000,0.426976
882.2000,0.427418
882.0000,0.428861
881.8000,0.42874
881.6000,0.426779
881.4000,0.427434
881.2000,0.428646
881.0000,0.428051
880.8000,0.428185
880.6000,0.429523
880.4000,0.429466
880.2000,0.429591
880.0000,0.430585
879.8000,0.428876
879.6000,0.428266
879.4000,0.430206
879.2000,0.431033
879.0000,0.430914
878.8000,0.430307
878.6000,0.430807
878.4000,0.430461
878.2000,0.429913
878.0000,0.430433
877.8000,0.429916
877.6000,0.430783
877.4000,0.430818
877.2000,0.43096
877.0000,0.432378
876.8000,0.432714
876.6000,0.432795
876.4000,0.433103
876.2000,0.432302
876.0000,0.430518
875.8000,0.431533
875.6000,0.432359
875.4000,0.432184
875.2000,0.432062
875.0000,0.43154
874.8000,0.432815
874.6000,0.433593
874.4000,0.43326
874.2000,0.432969
874.0000,0.432037
873.8000,0.4312
873.6000,0.432393
873.4000,0.434232
873.2000,0.435763
873.0000,0.435088
872.8000,0.433987
872.6000,0.434827
872.4000,0.435079
872.2000,0.434695
872.0000,0.433793
871.8000,0.433491
871.6000,0.434004
871.4000,0.433713
871.2000,0.434328
871.0000,0.435598
870.8000,0.436014
870.6000,0.434884
870.4000,0.435009
870.2000,0.436882
870.0000,0.43578
869.8000,0.436168
869.6000,0.436466
869.4000,0.435504
869.2000,0.435776
869.0000,0.435439
868.8000,0.437178
868.6000,0.438343
868.4000,0.43737
868.2000,0.436468
868.0000,0.43678
867.8000,0.438097
867.6000,0.436747
867.4000,0.436272
867.2000,0.438428
867.0000,0.438761
866.8000,0.437781
866.6000,0.437606
866.4000,0.437307
866.2000,0.437298
866.0000,0.438581
865.8000,0.438721
865.6000,0.438214
865.4000,0.438487
865.2000,0.439114
865.0000,0.438876
864.8000,0.438706
864.6000,0.439456
864.4000,0.439288
864.2000,0.439072
864.0000,0.43814
863.8000,0.438684
863.6000,0.439573
863.4000,0.4403
863.2000,0.441014
863.0000,0.440116
862.8000,0.440452
862.6000,0.440078
862.4000,0.439303
862.2000,0.440031
862.0000,0.440303
861.8000,0.440085
861.6000,0.440493
861.4000,0.44073
861.2000,0.441158
861.0000,0.441483
860.8000,0.441027
860.6000,0.441329
860.4000,0.441961
860.2000,0.441943
860.0000,0.441698
859.8000,0.441886
859.6000,0.442091
859.4000,0.441748
859.2000,0.441788
859.0000,0.442227
858.8000,0.442874
858.6000,0.442976
858.4000,0.442594
858.2000,0.443202
858.0000,0.442863
857.8000,0.441825
857.6000,0.442054
857.4000,0.44312
857.2000,0.443755
857.0000,0.443322
856.8000,0.443113
856.6000,0.443736
856.4000,0.444121
856.2000,0.44369
856.0000,0.44416
855.8000,0.445198
855.6000,0.444946
855.4000,0.444622
855.2000,0.44513
855.0000,0.444872
854.8000,0.444471
854.6000,0.445485
854.4000,0.446013
854.2000,0.444829
854.0000,0.44467
853.8000,0.445385
853.6000,0.445292
853.4000,0.445732
853.2000,0.44612
853.0000,0.445902
852.8000,0.446345
852.6000,0.44688
852.4000,0.446115
852.2000,0.445928
852.0000,0.446622
851.8000,0.446696
851.6000,0.446413
851.4000,0.446296
851.2000,0.446535
851.0000,0.447209
850.8000,0.447047
850.6000,0.446834
850.4000,0.447621
850.2000,0.447575
850.0000,0.447221
849.8000,0.447042
849.6000,0.447642
849.4000,0.447801
849.2000,0.4479
849.0000,0.448286
848.8000,0.447967
848.6000,0.44771
848.4000,0.448023
848.2000,0.44814
848.0000,0.448365
847.8000,0.448648
847.6000,0.448234
847.4000,0.448263
847.2000,0.448409
847.0000,0.448668
846.8000,0.448976
846.6000,0.449366
846.4000,0.450081
846.2000,0.449658
846.0000,0.449257
845.8000,0.449602
845.6000,0.449408
845.4000,0.449437
845.2000,0.44919
845.0000,0.449154
844.8000,0.449618
844.6000,0.449187
844.4000,0.44938
844.2000,0.45023
844.0000,0.44954
843.8000,0.449577
843.6000,0.450543
843.4000,0.450488
843.2000,0.45012
843.0000,0.450144
842.8000,0.450369
842.6000,0.450426
842.4000,0.450495
842.2000,0.450931
842.0000,0.451322
841.8000,0.451352
841.6000,0.451228
841.4000,0.450902
841.2000,0.450656
841.0000,0.450862
840.8000,0.451232
840.6000,0.451354
840.4000,0.451578
840.2000,0.451805
840.0000,0.451961
839.8000,0.452009
839.6000,0.451901
839.4000,0.451824
839.2000,0.451727
839.0000,0.451586
838.8000,0.451567
838.6000,0.451846
838.4000,0.45193
838.2000,0.452188
838.0000,0.452378
837.8000,0.452304
837.6000,0.451964
837.4000,0.452157
837.2000,0.452438
837.0000,0.45236
836.8000,0.452493
836.6000,0.452589
836.4000,0.452596
836.2000,0.452494
836.0000,0.452543
835.8000,0.452573
835.6000,0.452951
835.4000,0.452952
835.2000,0.452767
835.0000,0.453009
834.8000,0.453392
834.6000,0.453135
834.4000,0.452943
834.2000,0.452955
834.0000,0.453027
833.8000,0.453211
833.6000,0.453348
833.4000,0.453836
833.2000,0.453709
833.0000,0.453763
832.8000,0.453923
832.6000,0.453744
832.4000,0.453536
832.2000,0.453609
832.0000,0.453828
831.8000,0.453847
831.6000,0.453837
831.4000,0.45398
831.2000,0.453807
831.0000,0.453547
830.8000,0.453685
830.6000,0.453755
830.4000,0.453695
830.2000,0.453826
830.0000,0.454307
829.8000,0.454359
829.6000,0.454213
829.4000,0.454144
829.2000,0.454382
829.0000,0.454623
828.8000,0.453946
828.6000,0.453848
828.4000,0.454276
828.2000,0.454394
828.0000,0.454464
827.8000,0.454308
827.6000,0.454573
827.4000,0.45479
827.2000,0.454482
827.0000,0.454624
826.8000,0.454616
826.6000,0.454608
826.4000,0.455193
826.2000,0.455026
826.0000,0.45484
825.8000,0.454739
825.6000,0.454545
825.4000,0.454558
825.2000,0.45502
825.0000,0.455156
824.8000,0.455042
824.6000,0.455144
824.4000,0.455022
824.2000,0.454944
824.0000,0.454916
823.8000,0.454852
823.6000,0.454479
823.4000,0.45463
823.2000,0.455097
823.0000,0.455107
822.8000,0.454684
822.6000,0.454885
822.4000,0.45542
822.2000,0.455582
822.0000,0.455419
821.8000,0.454861
821.6000,0.454746
821.4000,0.455077
821.2000,0.455173
821.0000,0.455159
820.8000,0.455289
820.6000,0.455032
820.4000,0.455094
820.2000,0.455053
820.0000,0.45513
819.8000,0.455599
819.6000,0.455249
819.4000,0.454587
819.2000,0.454932
819.0000,0.455763
818.8000,0.455899
818.6000,0.455428
818.4000,0.455253
818.2000,0.455298
818.0000,0.455136
817.8000,0.455167
817.6000,0.455281
817.4000,0.455631
817.2000,0.455561
817.0000,0.455802
816.8000,0.455856
816.6000,0.455566
816.4000,0.455858
816.2000,0.455778
816.0000,0.455697
815.8000,0.455732
815.6000,0.455771
815.4000,0.455864
815.2000,0.455627
815.0000,0.456061
814.8000,0.4566
814.6000,0.456241
814.4000,0.455802
814.2000,0.455713
814.0000,0.455716
813.8000,0.455643
813.6000,0.45607
813.4000,0.456154
813.2000,0.455688
813.0000,0.455658
812.8000,0.455609
812.6000,0.455775
812.4000,0.456484
812.2000,0.456584
812.0000,0.456001
811.8000,0.455933
811.6000,0.456143
811.4000,0.455852
811.2000,0.455982
811.0000,0.456085
810.8000,0.455805
810.6000,0.45603
810.4000,0.456506
810.2000,0.456406
810.0000,0.456265
809.8000,0.456233
809.6000,0.456294
809.4000,0.45659
809.2000,0.456101
809.0000,0.456155
808.8000,0.45643
808.6000,0.456546
808.4000,0.45674
808.2000,0.456215
808.0000,0.455963
807.8000,0.456317
807.6000,0.456343
807.4000,0.456173
807.2000,0.456249
807.0000,0.456806
806.8000,0.456667
806.6000,0.456242
806.4000,0.456501
806.2000,0.4566
806.0000,0.456838
805.8000,0.457037
805.6000,0.456713
805.4000,0.456789
805.2000,0.457012
805.0000,0.457043
804.8000,0.457092
804.6000,0.4567
804.4000,0.456425
804.2000,0.456755
804.0000,0.457148
803.8000,0.456968
803.6000,0.456759
803.4000,0.456667
803.2000,0.456561
803.0000,0.456768
802.8000,0.456883
802.6000,0.457119
802.4000,0.4573
802.2000,0.457161
802.0000,0.457248
801.8000,0.457087
801.6000,0.456985
801.4000,0.456989
801.2000,0.456924
801.0000,0.457048
800.8000,0.457339
800.6000,0.457373
800.4000,0.457081
800.2000,0.456766
800.0000,0.456862
799.8000,0.456952
799.6000,0.457001
799.4000,0.45733
799.2000,0.457162
799.0000,0.45681
798.8000,0.456858
798.6000,0.45728
798.4000,0.457453
798.2000,0.457209
798.0000,0.457232
797.8000,0.457396
797.6000,0.457594
797.4000,0.457751
797.2000,0.45742
797.0000,0.457252
796.8000,0.457443
796.6000,0.457479
796.4000,0.457239
796.2000,0.457225
796.0000,0.457486
795.8000,0.457489
795.6000,0.457534
795.4000,0.457331
795.2000,0.457439
795.0000,0.457683
794.8000,0.457275
794.6000,0.457229
794.4000,0.457249
794.2000,0.457431
794.0000,0.457697
793.8000,0.457651
793.6000,0.457421
793.4000,0.457507
793.2000,0.457897
793.0000,0.457511
792.8000,0.457357
792.6000,0.457742
792.4000,0.457512
792.2000,0.457258
792.0000,0.457519
791.8000,0.457471
791.6000,0.457245
791.4000,0.457571
791.2000,0.457928
791.0000,0.457758
790.8000,0.457551
790.6000,0.457565
790.4000,0.457509
790.2000,0.457754
790.0000,0.457806
789.8000,0.457751
789.6000,0.458032
789.4000,0.457875
789.2000,0.457891
789.0000,0.458199
788.8000,0.457966
788.6000,0.457717
788.4000,0.457911
788.2000,0.458115
788.0000,0.458052
787.8000,0.45801
787.6000,0.458158
787.4000,0.458262
787.2000,0.458165
787.0000,0.457936
786.8000,0.457912
786.6000,0.457846
786.4000,0.458127
786.2000,0.45822
786.0000,0.458092
785.8000,0.458215
785.6000,0.458056
785.4000,0.458309
785.2000,0.458398
785.0000,0.458217
784.8000,0.458235
784.6000,0.457838
784.4000,0.45798
784.2000,0.458548
784.0000,0.458262
783.8000,0.458329
783.6000,0.458834
783.4000,0.458757
783.2000,0.458557
783.0000,0.458461
782.8000,0.458086
782.6000,0.457678
782.4000,0.458042
782.2000,0.458209
782.0000,0.458045
781.8000,0.458344
781.6000,0.458427
781.4000,0.458351
781.2000,0.458537
781.0000,0.458881
780.8000,0.458921
780.6000,0.458511
780.4000,0.458457
780.2000,0.458842
780.0000,0.458926
779.8000,0.458496
779.6000,0.458367
779.4000,0.458567
779.2000,0.458696
779.0000,0.45885
778.8000,0.459016
778.6000,0.458845
778.4000,0.458758
778.2000,0.458809
778.0000,0.458617
777.8000,0.458839
777.6000,0.458846
777.4000,0.458839
777.2000,0.458751
777.0000,0.458649
776.8000,0.459014
776.6000,0.459015
776.4000,0.459031
776.2000,0.459023
776.0000,0.458738
775.8000,0.458768
775.6000,0.458851
775.4000,0.458774
775.2000,0.458778
775.0000,0.458751
774.8000,0.458645
774.6000,0.458911
774.4000,0.458895
774.2000,0.458797
774.0000,0.458988
773.8000,0.459017
773.6000,0.458852
773.4000,0.458656
773.2000,0.458906
773.0000,0.45905
772.8000,0.459026
772.6000,0.459229
772.4000,0.459355
772.2000,0.459367
772.0000,0.459475
771.8000,0.45928
771.6000,0.458917
771.4000,0.458816
771.2000,0.458828
771.0000,0.459207
770.8000,0.45935
770.6000,0.45921
770.4000,0.459262
770.2000,0.459197
770.0000,0.459322
769.8000,0.459252
769.6000,0.459203
769.4000,0.45956
769.2000,0.459707
769.0000,0.45927
768.8000,0.459138
768.6000,0.459347
768.4000,0.459689
768.2000,0.459628
768.0000,0.45936
767.8000,0.459624
767.6000,0.459561
767.4000,0.459287
767.2000,0.459353
767.0000,0.459351
766.8000,0.45917
766.6000,0.459518
766.4000,0.459566
766.2000,0.459321
766.0000,0.459414
765.8000,0.459579
765.6000,0.459481
765.4000,0.459158
765.2000,0.458907
765.0000,0.458924
764.8000,0.459368
764.6000,0.459777
764.4000,0.46001
764.2000,0.459828
764.0000,0.459279
763.8000,0.459172
763.6000,0.459398
763.4000,0.459671
763.2000,0.459518
763.0000,0.459356
762.8000,0.459619
762.6000,0.459689
762.4000,0.459813
762.2000,0.459969
762.0000,0.459774
761.8000,0.459497
761.6000,0.459746
761.4000,0.460031
761.2000,0.459991
761.0000,0.459939
760.8000,0.459675
760.6000,0.45957
760.4000,0.459674
760.2000,0.459977
760.0000,0.460263
759.8000,0.459864
759.6000,0.459729
759.4000,0.460079
759.2000,0.460153
759.0000,0.460126
758.8000,0.459813
758.6000,0.459633
758.4000,0.459944
758.2000,0.46017
758.0000,0.46038
757.8000,0.460295
757.6000,0.460055
757.4000,0.460232
757.2000,0.459934
757.0000,0.459699
756.8000,0.460054
756.6000,0.460446
756.4000,0.460377
756.2000,0.459902
756.0000,0.460206
755.8000,0.460587
755.6000,0.460176
755.4000,0.459885
755.2000,0.459848
755.0000,0.45994
754.8000,0.460326
754.6000,0.46045
754.4000,0.460413
754.2000,0.460373
754.0000,0.460381
753.8000,0.46034
753.6000,0.460462
753.4000,0.460541
753.2000,0.460343
753.0000,0.460318
752.8000,0.460468
752.6000,0.460527
752.4000,0.460652
752.2000,0.460681
752.0000,0.460232
751.8000,0.46041
751.6000,0.460495
751.4000,0.460134
751.2000,0.460457
751.0000,0.460775
750.8000,0.460664
750.6000,0.460423
750.4000,0.460261
750.2000,0.46034
750.0000,0.460561
749.8000,0.460499
749.6000,0.460513
749.4000,0.460675
749.2000,0.460426
749.0000,0.460394
748.8000,0.460569
748.6000,0.460378
748.4000,0.460409
748.2000,0.460516
748.0000,0.460434
747.8000,0.460385
747.6000,0.460604
747.4000,0.460853
747.2000,0.461004
747.0000,0.461113
746.8000,0.461016
746.6000,0.460938
746.4000,0.461062
746.2000,0.460996
746.0000,0.46092
745.8000,0.460981
745.6000,0.460965
745.4000,0.460849
745.2000,0.46083
745.0000,0.460927
744.8000,0.460758
744.6000,0.46076
744.4000,0.460911
744.2000,0.460761
744.0000,0.46083
743.8000,0.461138
743.6000,0.461087
743.4000,0.461094
743.2000,0.461089
743.0000,0.461155
742.8000,0.461321
742.6000,0.461182
742.4000,0.460838
742.2000,0.460797
742.0000,0.460908
741.8000,0.460826
741.6000,0.460982
741.4000,0.460937
741.2000,0.461108
741.0000,0.461551
740.8000,0.46151
740.6000,0.461204
740.4000,0.461147
740.2000,0.461287
740.0000,0.461921
739.8000,0.461571
739.6000,0.461223
739.4000,0.461515
739.2000,0.461923
739.0000,0.461887
738.8000,0.461537
738.6000,0.461821
738.4000,0.462031
738.2000,0.461789
738.0000,0.461613
737.8000,0.461665
737.6000,0.461658
737.4000,0.461637
737.2000,0.461867
737.0000,0.461966
736.8000,0.462108
736.6000,0.462348
736.4000,0.462128
736.2000,0.461685
736.0000,0.461693
735.8000,0.46196
735.6000,0.4619
735.4000,0.462021
735.2000,0.462089
735.0000,0.462072
734.8000,0.462176
734.6000,0.462338
734.4000,0.462281
734.2000,0.462215
734.0000,0.462361
733.8000,0.462441
733.6000,0.462556
733.4000,0.462267
733.2000,0.462022
733.0000,0.462509
732.8000,0.462835
732.6000,0.46261
732.4000,0.462373
732.2000,0.462394
732.0000,0.462361
731.8000,0.462341
731.6000,0.462518
731.4000,0.462714
731.2000,0.462382
731.0000,0.461994
730.8000,0.462231
730.6000,0.4624
730.4000,0.462508
730.2000,0.462555
730.0000,0.462782
729.8000,0.462771
729.6000,0.462648
729.4000,0.462709
729.2000,0.462352
729.0000,0.462263
728.8000,0.462415
728.6000,0.462602
728.4000,0.462765
728.2000,0.462714
728.0000,0.462626
727.8000,0.462958
727.6000,0.463249
727.4000,0.462834
727.2000,0.462658
727.0000,0.462909
726.8000,0.462924
726.6000,0.462797
726.4000,0.462687
726.2000,0.462951
726.0000,0.463095
725.8000,0.462748
725.6000,0.46286
725.4000,0.463048
725.2000,0.462715
725.0000,0.462719
724.8000,0.463171
724.6000,0.463312
724.4000,0.463271
724.2000,0.462947
724.0000,0.462797
723.8000,0.462963
723.6000,0.463123
723.4000,0.462902
723.2000,0.46284
723.0000,0.463132
722.8000,0.46345
722.6000,0.463579
722.4000,0.463492
722.2000,0.463378
722.0000,0.463368
721.8000,0.463494
721.6000,0.463223
721.4000,0.463083
721.2000,0.463222
721.0000,0.463433
720.8000,0.463576
720.6000,0.463365
720.4000,0.46326
720.2000,0.463391
720.0000,0.463324
719.8000,0.463372
719.6000,0.463736
719.4000,0.463797
719.2000,0.46355
719.0000,0.463634
718.8000,0.463584
718.6000,0.463628
718.4000,0.463774
718.2000,0.463578
718.0000,0.463583
717.8000,0.463479
717.6000,0.463389
717.4000,0.463663
717.2000,0.463824
717.0000,0.463701
716.8000,0.4638
716.6000,0.463684
716.4000,0.463645
716.2000,0.463681
716.0000,0.463701
715.8000,0.463777
715.6000,0.463455
715.4000,0.463567
715.2000,0.463735
715.0000,0.463824
714.8000,0.463802
714.6000,0.463718
714.4000,0.463892
714.2000,0.463754
714.0000,0.46388
713.8000,0.46422
713.6000,0.464174
713.4000,0.464244
713.2000,0.464376
713.0000,0.464101
712.8000,0.464018
712.6000,0.464163
712.4000,0.464011
712.2000,0.463968
712.0000,0.463965
711.8000,0.463921
711.6000,0.464015
711.4000,0.464345
711.2000,0.464513
711.0000,0.464227
710.8000,0.464012
710.6000,0.464219
710.4000,0.464404
710.2000,0.464381
710.0000,0.464418
709.8000,0.4645
709.6000,0.464475
709.4000,0.464468
709.2000,0.464607
709.0000,0.464782
708.8000,0.464444
708.6000,0.464477
708.4000,0.464737
708.2000,0.46457
708.0000,0.464541
707.8000,0.464564
707.6000,0.464732
707.4000,0.464492
707.2000,0.464491
707.0000,0.464836
706.8000,0.464607
706.6000,0.464474
706.4000,0.46465
706.2000,0.464842
706.0000,0.464747
705.8000,0.464579
705.6000,0.464813
705.4000,0.465076
705.2000,0.464942
705.0000,0.4647
704.8000,0.46481
704.6000,0.464927
704.4000,0.464909
704.2000,0.465126
704.0000,0.465069
703.8000,0.465054
703.6000,0.465211
703.4000,0.46509
703.2000,0.465032
703.0000,0.465152
702.8000,0.46522
702.6000,0.465036
702.4000,0.465001
702.2000,0.465113
702.0000,0.465331
701.8000,0.465221
701.6000,0.465206
701.4000,0.46557
701.2000,0.465459
701.0000,0.465469
700.8000,0.465745
700.6000,0.465657
700.4000,0.465557
700.2000,0.4656
700.0000,0.465711
699.8000,0.465551
699.6000,0.465432
699.4000,0.465589
699.2000,0.465427
699.0000,0.465226
698.8000,0.465593
698.6000,0.466024
698.4000,0.46577
698.2000,0.465636
698.0000,0.466036
697.8000,0.46604
697.6000,0.465773
697.4000,0.465756
697.2000,0.465838
697.0000,0.465836
696.8000,0.465737
696.6000,0.465872
696.4000,0.465972
696.2000,0.465979
696.0000,0.466012
695.8000,0.465987
695.6000,0.465952
695.4000,0.465963
695.2000,0.46596
695.0000,0.466079
694.8000,0.466331
694.6000,0.466127
694.4000,0.466202
694.2000,0.466286
694.0000,0.466119
693.8000,0.466175
693.6000,0.466036
693.4000,0.466024
693.2000,0.466075
693.0000,0.466289
692.8000,0.466271
692.6000,0.466321
692.4000,0.466494
692.2000,0.466468
692.0000,0.466546
691.8000,0.46676
